File: 5_RW_thesis/Degradation_FTIR/FTIR_results.csv
DT13_LCNeg1_2019-06-04T15-59-48 (2),DT13_LCNeg1_2019-06-04T15-59-48,DT13_LCNeg1_2019-06-04T16-02-11 (2),DT13_LCNeg1_2019-06-04T16-02-11,DT13_LCNeg2_2019-06-04T16-05-00 (2),DT13_LCNeg2_2019-06-04T16-05-00,DT13_LCNeg2_2019-06-04T16-07-11 (2),DT13_LCNeg2_2019-06-04T16-07-11,DT13_LCNeg3_2019-06-04T16-07-51 (2),DT13_LCNeg3_2019-06-04T16-07-51,DT13_LCNeg3_2019-06-04T16-08-50,DT13_LCNeg4_2019-06-04T16-09-20,DT13_LCNeg5_2019-06-04T16-10-15 (2),DT13_LCNeg5_2019-06-04T16-10-15,DT14_LCNeg1_2019-06-04T16-17-14,DT14_LCNeg2_2019-06-04T16-16-09,DT14_LCNeg2_2019-06-04T16-16-49,DT14_LCNeg3_2019-06-04T16-15-04,DT14_LCNeg4_2019-06-04T16-14-04,DT14_LCNeg5_2019-06-04T16-13-07,DT15_LCNeg1_2019-06-04T16-18-14,DT15_LCNeg2_2019-06-04T16-19-04,DT15_LCNeg3_2019-06-04T16-19-47,DT15_LCNeg4_2019-06-04T16-21-48,DT15_LCNeg4_2019-06-04T16-22-22,DT15_LCNeg5_2019-06-04T16-23-33,DT16_LCB4_1_2019-06-04T16-27-56,DT16_LCB4_2_2019-06-04T16-27-08,DT16_LCB4_3_2019-06-04T16-26-19,DT16_LCB4_4_2019-06-04T16-25-16,DT16_LCB4_5_2019-06-04T16-24-37,DT17_LCB4_1_2019-06-04T16-28-55,DT17_LCB4_2_2019-06-04T16-29-51,DT17_LCB4_3_2019-06-04T16-30-34,DT17_LCB4_4_2019-06-04T16-31-13,DT17_LCB4_5_2019-06-04T16-31-52,DT18_LCB4_1_2019-06-04T16-36-01,DT18_LCB4_2_2019-06-04T16-35-21,DT18_LCB4_3_2019-06-04T16-34-38,DT18_LCB4_4_2019-06-04T16-33-59,DT18_LCB4_5_2019-06-04T16-32-49,DT19_LCB6_1_2019-06-04T16-37-08,DT19_LCB6_2_2019-06-04T16-37-46,DT19_LCB6_3_2019-06-04T16-38-27,DT20_LCB6_1_2019-06-04T16-40-45,DT20_LCB6_2_2019-06-04T16-40-04,DT20_LCB6_3_2019-06-04T16-39-21,DT21_LCB6_1_2019-06-04T16-41-39,DT21_LCB6_2_2019-06-04T16-42-18,DT21_LCB6_3_2019-06-04T16-43-00,DT22_LCB6_2_2019-06-04T16-45-11,DT22_LCComm_1_2019-06-04T16-45-52,DT22_LCComm_3_2019-06-04T16-43-54,DT23_LCComm_1_2019-06-04T16-46-50,DT23_LCComm_2_2019-06-04T16-47-27,DT23_LCComm_3_2019-06-04T16-48-12,DT24_LCComm_1_2019-06-04T16-50-21,DT24_LCComm_2_2019-06-04T16-49-46,DT24_LCComm_3_2019-06-04T16-49-10,DT25_Neg_1_2019-06-04T16-51-45,DT25_Neg_2_2019-06-04T16-53-17,DT25_Neg_3_2019-06-04T16-53-17,DT26_Neg_1_2019-06-04T16-56-32,DT26_Neg_2_2019-06-04T16-55-51,DT26_Neg_3_2019-06-04T16-54-35,DT27_Neg_1_2019-06-04T16-57-33,DT27_Neg_2_2019-06-04T16-58-19,DT27_Neg_3_2019-06-04T16-59-02,DT28_B4_1_2019-06-04T17-01-25,DT28_B4_2_2019-06-04T17-00-46,DT28_B4_3_2019-06-04T17-00-02,DT29_B4_1_2019-06-04T17-02-42,DT29_B4_2_2019-06-04T17-03-29,DT29_B4_3_2019-06-04T17-04-17,DT30_B4_1_2019-06-04T17-07-20,DT30_B4_2_2019-06-04T17-06-31,DT30_B4_3_2019-06-04T17-05-13,DT31_B6_1_2019-06-04T17-08-13,DT31_B6_2_2019-06-04T17-08-58,DT31_B6_3_2019-06-04T17-09-42,DT32_B6_1_2019-06-04T17-12-31,DT32_B6_2_2019-06-04T17-11-34,DT32_B6_3_2019-06-04T17-10-50,DT33_B6_1_2019-06-04T17-13-45,DT33_B6_2_2019-06-04T17-14-35,DT33_B6_3_2019-06-04T17-15-31,DT34_Comm_1_2019-06-04T17-16-46,DT34_Comm_2_2019-06-04T17-18-02,DT34_Comm_3_2019-06-04T17-19-49,DT35_Comm_1_2019-06-04T17-21-02,DT35_Comm_2_2019-06-04T17-21-47,DT35_Comm_3_2019-06-04T17-22-32,DT36_Comm_1_2019-06-04T17-24-37,DT36_Comm_2_2019-06-04T17-25-11,DT36_Comm_3_2019-06-04T17-25-55,DT37_Neg_1_2019-06-04T17-26-49,DT37_Neg_2_2019-06-04T17-27-32,DT37_Neg_3_2019-06-04T17-28-44,DT38_Neg_1_2019-06-04T17-29-39,DT38_Neg_2_2019-06-04T17-30-16,DT38_Neg_3_2019-06-04T17-30-54,DT39_Neg_1_2019-06-04T17-31-49,DT39_Neg_2_2019-06-04T17-32-30,DT39_Neg_3_2019-06-04T17-33-09,DT40_B4_1_2019-06-04T17-34-06,DT40_B4_2_2019-06-04T17-34-40,DT40_B4_3_2019-06-04T17-35-16,DT41_B4_1_2019-06-04T17-36-08,DT41_B4_2_2019-06-04T17-36-43,DT41_B4_3_2019-06-04T17-37-19,DT42_B4_1_2019-06-04T17-38-14,DT42_B4_2_2019-06-04T17-39-20,DT42_B4_3_2019-06-04T17-40-05,DT43_B6_1_2019-06-04T17-41-12,DT43_B6_2_2019-06-04T17-42-25,DT43_B6_3_2019-06-04T17-42-59,DT43_Comm_1_2019-06-04T17-41-12,DT44_B6_1_2019-06-04T17-44-15,DT44_B6_2_2019-06-04T17-44-49,DT44_B6_3_2019-06-04T17-45-26,DT45_B6_1_2019-06-04T17-46-16,DT45_B6_2_2019-06-04T17-46-48,DT45_B6_3_2019-06-04T17-47-25,DT46_Comm_1_2019-06-04T17-48-15,DT46_Comm_2_2019-06-04T17-48-51,DT46_Comm_3_2019-06-04T17-49-50,DT47_Comm_1_2019-06-04T17-50-40,DT47_Comm_2_2019-06-04T17-51-15,DT47_Comm_3_2019-06-04T17-51-48,DT48_Comm_1_2019-06-04T17-52-35,DT48_Comm_2_2019-06-04T17-53-12,DT48_Comm_3_2019-06-04T17-53-46,RW_PET_powder_2019-02-12T09-20-37,RW_PET_weather_2019-02-12T09-22-57,RW_low_crys_2019-02-12T09-05-58
102.88,102.88,99.38,99.38,106.12,106.12,112.24,112.24,113.79,113.79,116.06,117.13,117.83,117.83,105.31,104.55,104.49,103.44,101.49,100.75,105.45,107.05,106.47,108.62,109.1,98.78,101.54,101.02,100.77,99.67,100.06,102.21,102.83,103.58,103.34,103.55,99.07,99.8,99.29,98.6,104.03,99.66,100.38,100.52,101.29,101.49,101.4,101.85,101.83,102.1,98.99,98.96,102.43,99.4,99.51,99.32,99.75,99.86,99.81,98.18,99.1,99.1,97.09,96.18,100.77,96.12,97.29,96.41,98.83,97.5,97.3,96.8,97.38,98.36,96.8,96.45,96.8,96.25,97.85,97.15,96.88,96.1,96.52,98,98.25,97.8,96.64,95.62,95.55,96.9,96.78,96.95,96.45,97.07,95.32,96.3,96.3,98.07,95.5,97.42,98.51,97.55,98.17,96.8,96.63,95.84,97.63,95.9,96.61,97.68,95.79,95.83,95.98,95.16,95.69,96.73,95.16,95.55,96.26,96.02,95.93,97.55,97.58,96.41,97.02,95.85,95.72,97.56,97.98,96.54,96.38,97.68,95.8,96.71,99.67
100.5,100.5,96.84,96.84,102.38,102.38,110.01,110.01,111.51,111.51,112.91,113.99,112.51,112.51,105.66,103.82,105.25,103.56,100.89,100.17,106.08,107.73,107.62,110.2,109.35,96.82,99.71,99.77,99.64,96.78,93.07,100.99,99.1,100.06,100.71,101.8,96.82,97.24,97.63,96,100.98,97.18,98.42,99.19,100.25,100.14,99.73,99.75,100.45,100.67,97.08,96.85,100.56,95.77,96.77,97.03,97.15,97.3,96.62,97.46,99.19,99.19,97.02,95.89,102.13,96.06,97.24,96.38,99.04,97.45,97.4,97,97.66,98.52,96.56,96.41,97.4,96.08,97.92,97.17,96.7,95.84,96.35,97.98,98.66,98.09,96.83,95.23,95.23,96.83,96.68,97.06,96.33,97.01,95.45,96.31,96.42,97.86,95.14,97.15,98.41,97.43,97.82,96.81,96.45,95.71,97.72,95.83,96.7,97.65,95.78,95.46,95.73,94.97,95.57,96.57,94.97,95.38,96.24,95.85,95.72,97.41,97.5,96.01,96.8,95.96,95.49,97.63,98.03,96.42,96.44,97.83,95.69,96.47,98.38
100.92,100.92,97.54,97.54,102.13,102.13,108.73,108.73,109.93,109.93,111.85,112.65,111.53,111.53,104.85,103.56,104.33,103.07,100.83,100.44,105.31,106.57,106.19,108.11,107.25,97.05,99.84,99.47,99.4,96.97,95.06,101.12,98.78,99.85,100.32,101.13,96.9,97.62,98.07,96.37,100.57,97.42,98.47,99,100,100.38,100.12,99.76,100.33,100.2,97.11,96.91,100.48,96.28,96.95,96.98,96.58,96.65,96.56,96.86,98.9,98.9,97.04,95.85,102.14,96.1,97.25,96.51,98.79,97.37,97.19,97.01,97.54,98.48,96.66,96.46,97.19,96.16,98.1,97.3,96.76,95.88,96.45,98.05,98.69,98.26,96.89,95.37,95.5,96.94,96.94,97.22,96.49,96.99,95.71,96.44,96.67,98.11,95.26,97.4,98.45,97.49,97.81,96.95,96.53,95.71,97.71,95.88,96.72,97.68,95.85,95.49,95.82,94.98,95.57,96.8,94.98,95.38,96.3,95.97,95.6,97.46,97.28,95.91,96.86,95.96,95.48,97.46,97.88,96.39,96.48,97.84,95.64,96.57,99.09
94.02,94.02,91.73,91.73,92.95,92.95,102.38,102.38,103.01,103.01,102.69,103.2,99.54,99.54,101.73,100.09,101.8,100.06,99.81,98.65,104.38,105.61,108.83,112.33,108.03,92.07,94.77,95.67,96.84,92.5,87.6,96.24,89.57,90.61,93.7,94.97,91.99,91.07,93.02,90.81,91.44,91.76,91.52,92.77,95.38,92.63,92.86,94.06,94.62,95.24,92.17,93.06,95.94,88.72,91.79,93.68,94.27,94.5,93.38,97.03,98.84,98.84,96.22,94.77,102.57,95.11,96.27,95.24,98.05,96.34,96.17,95.69,96.04,97.13,95.67,95.56,96.09,95.16,97.38,96.27,95.2,94.46,95.27,97.04,97.85,97.02,95.36,94.02,94.15,96.02,95.91,96.28,95.18,95.45,94.12,95.16,95.38,97.36,94.11,96.82,97.79,96.73,96.99,95.83,95.45,94.57,96.94,94.76,95.7,96.77,94.64,94.49,94.78,93.74,94.37,96.05,93.74,94.21,95.33,94.63,94.43,96.64,96.11,94.71,95.92,94.74,94.28,96.79,97.29,95.39,95.42,97.06,93.41,95.4,93.85
100.68,100.68,98.3,98.3,101.74,101.74,106.82,106.82,107.74,107.74,109.21,109.72,109.56,109.56,103.33,103.06,102.8,102.36,100.8,100.61,103.09,104.95,104,105.92,105.45,97.98,100.05,99.72,99.7,98.25,98.35,100.87,99.84,100.91,100.77,101.16,97.82,98.76,98.72,97.49,100.95,98.54,99.07,99.24,100.11,100.18,100.1,100.55,100.52,100.33,98.13,97.85,101.02,97.6,98.29,98.14,98.29,98.42,98.32,97.56,98.28,98.28,97.2,95.82,100.35,95.76,96.81,96.19,98.25,97.03,96.76,96.58,97.09,97.73,96.3,96.23,96.59,95.95,97.96,97.01,96.47,95.56,95.85,97.53,98.54,97.9,96.31,94.92,95.27,96.53,96.52,97.12,95.8,96.22,95.68,96,96.32,98.18,95.2,97.51,98.15,97.26,97.67,97.11,96.33,95.6,97.48,95.78,96.5,97.41,95.68,95.62,95.95,94.81,95.47,97.04,94.81,95.09,96.08,95.87,95.31,97.38,96.86,95.41,96.68,96.06,95.14,97.46,97.65,96.27,96.35,97.92,95.41,96.42,99.38
101.23,101.23,98.72,98.72,101.49,101.49,105.67,105.67,106.47,106.47,107.72,108.21,107.94,107.94,102.23,102.39,101.79,101.96,100.43,100.45,101.8,103.61,102.47,104,103.7,98.42,100.37,99.95,99.95,98.66,99.02,100.91,100.44,101.41,101.05,101.41,98.39,99.34,99.17,98.13,101.18,99.1,99.56,99.56,100.42,100.59,100.45,100.95,101.01,100.58,98.66,98.25,101.34,98.14,98.77,98.48,98.7,98.87,98.81,97.66,98.03,98.03,97.38,96.04,99.81,95.97,96.77,96.33,98,96.99,96.66,96.44,96.84,97.29,96.43,96.35,96.32,96.24,98.1,97.18,96.59,95.74,95.89,97.54,98.55,97.94,96.26,95.16,95.62,96.75,96.75,97.42,95.95,96.36,96.17,96.1,96.61,98.36,95.51,97.74,98.26,97.44,97.84,97.31,96.41,95.72,97.52,95.86,96.6,97.48,95.83,95.98,96.22,95,95.69,97.33,95,95.22,96.26,96.1,95.4,97.55,96.8,95.52,96.72,96.27,95.29,97.51,97.79,96.32,96.48,97.99,95.78,96.57,99.46
101.4,101.4,99.53,99.53,102.41,102.41,106.26,106.26,106.83,106.83,108.22,108.85,108.84,108.84,102.61,102.89,102.15,102.23,100.77,100.71,102.38,104.11,103.01,104.51,104.35,98.98,100.87,100.43,100.23,99.26,99.8,101.41,101.02,102.24,101.77,101.85,99.2,100.01,99.71,98.82,101.75,99.93,100.38,100.31,100.91,101.15,100.97,101.44,101.51,101.24,99.57,99.12,101.8,99.39,99.6,99.5,99.68,99.7,99.75,98.82,99.04,99.04,98.25,96.94,100.5,96.9,97.7,97.58,98.86,98.11,97.73,97.83,98.28,98.59,97.24,96.97,97.64,97.06,98.57,97.91,97.8,96.73,96.74,98.48,99.38,98.84,97.4,96.46,96.81,97.7,97.61,98.37,96.92,97.37,97.56,97.19,97.75,99.16,96.58,98.53,98.87,98.13,98.65,98.57,97.42,96.97,98.39,97.22,97.91,98.31,97.24,96.79,97.22,95.98,96.79,98.2,95.98,96.29,97.18,97.17,96.45,98.18,97.73,96.45,97.6,97.23,96.19,98.05,98.19,97.1,97.45,98.63,96.54,97.31,100.45
99.9,99.9,98.37,98.37,99.75,99.75,102.38,102.38,102.66,102.66,103.04,103.23,103.03,103.03,100.64,100.59,100.4,100.43,99.93,99.84,100.54,101.52,101.09,102.35,101.36,97.9,98.92,98.98,99.2,98.22,97.88,99.44,98.5,98.88,99.17,99.35,97.9,98.14,98.24,97.94,98.93,98.05,98.3,98.46,98.85,98.33,98.45,98.68,98.93,99.12,98.27,98.23,99.25,97.25,98.08,98.32,98.48,98.53,98.41,98.14,98.31,98.31,98.14,97.25,99.5,97.07,97.64,97.21,98.49,97.89,97.69,97.39,97.59,97.91,97.46,97.48,97.52,97.37,98.57,97.88,97.43,96.82,97.1,98.17,98.89,98.28,97.18,96.67,96.89,97.57,97.58,97.92,96.94,97.05,97.08,96.99,97.47,98.73,96.88,98.49,98.57,98.2,98.25,98.19,97.45,97.04,98.27,97.11,97.66,98.02,97.1,97.19,97.41,96.66,97.11,98.18,96.66,96.72,97.38,97.3,96.79,98.07,97.56,96.81,97.6,97.5,96.71,98.3,98.34,97.41,97.64,98.4,96.95,97.59,98.56
97.12,97.12,96.55,96.55,96,96,98.44,98.44,98.45,98.45,98.21,98.21,96.77,96.77,98.69,98.59,98.6,98.64,98.45,99.13,98.82,98.69,98.44,99.18,96.57,95.7,96.43,96.45,96.65,94.83,93.52,97.76,94,94.25,95.28,95.68,94.71,95.21,96.03,95.48,94.7,94.78,95.2,95.82,95.76,95.46,95.78,95.02,95.48,95.77,96.21,95.71,95.55,93.68,95.13,95.25,93.97,94.04,94.37,94.62,95.82,95.82,96.74,95.15,99.56,94.99,95.88,95.27,96.93,95.69,95.5,95.27,95.39,95.93,95.7,95.75,95.28,95.52,97.47,96.26,95.15,94.29,94.77,96.42,97.51,96.57,94.61,94.36,94.74,95.93,95.85,96.5,94.53,94.75,94.99,94.74,95.34,97.88,94.67,97.39,97.47,96.78,97,96.88,95.44,94.82,96.84,94.9,95.61,96.21,94.66,95.32,95.65,94.33,94.94,96.9,94.33,94.35,95.39,95.14,94.21,96.45,95.51,93.99,95.44,95.98,94.47,97.08,97.15,95.59,95.89,97.26,94.82,95.94,97.13
48.38,48.38,56,56,47.96,47.96,67.44,67.44,66.08,66.08,58.16,57.34,47.85,47.85,63.23,50.58,65.6,58.09,74.84,72.65,77.5,69.58,74.83,110.89,57.68,47.88,52.02,63.02,75.94,53.94,35.59,65.16,46.11,38.39,59.62,59.38,49.48,45.21,52.6,57.99,53.76,47.24,46.28,55.07,50.95,36.68,42.14,49.54,54.67,64.72,59.27,58.63,61.91,27.43,50.67,57.84,65.38,67.68,61.22,75.71,72.29,72.29,73.32,65.3,81.21,62.24,66.12,58.21,76.48,68.41,69.3,60.96,57.08,62.44,70.69,71.99,64.89,70.33,81.31,72.1,58.67,55.24,66.43,74.73,80.72,72.52,62.67,59.17,59.64,70.99,68.3,72.82,61.16,56.14,55.23,62.87,64.57,77.77,60.83,79.16,77.17,75.47,70.75,69.31,66.35,61.86,76.83,63.43,69.45,70.94,61.22,65.44,65.85,59.96,61.29,74.68,59.96,62.3,68.81,60.92,61.92,72.22,64.94,59.24,67.22,70.84,62.28,78.8,80.89,68.11,69.26,74.55,64.6,74.64,31.28
72.65,72.65,77.5,77.5,73.53,73.53,82.7,82.7,82.09,82.09,79.48,79.11,74.23,74.23,88.2,84.9,88.76,86.49,91.04,90.97,92.1,92.23,92.12,103.62,88.16,73.61,74.19,79.61,85.79,74.72,66.69,80.75,70.66,67.97,76.9,76.76,72.9,72.23,75.18,77.26,74.73,72.36,72.89,76.14,74.39,68.04,70.49,73.58,75.73,81.31,78.75,77.43,79.22,62.96,73.42,76.76,80.74,81.31,78.36,84.75,82.29,82.29,83.7,78.16,88.05,76.77,78.99,75,85.18,80.1,80.48,76.39,74.46,77.31,81.77,82.15,78.32,81.19,88.14,82.44,75.12,72.75,78.45,84.2,88.18,83.42,76.89,74.7,75.02,81.49,79.87,83.01,75.89,73.62,73.52,76.92,78.24,86.28,75.58,86.95,86.26,84.41,82.12,81.4,79.14,76.33,85.62,77.26,80.62,82.31,75.94,78.4,78.73,74.93,75.84,84.36,74.93,75.84,80.24,76.39,75.91,82.68,78.2,74.52,79.64,82.07,76.36,86.63,87.53,79.95,80.73,84.69,78.73,83.93,67.17
72.64,72.64,76.11,76.11,71.51,71.51,80.79,80.79,80.11,80.11,79,78.61,72.77,72.77,88.95,87.27,89.2,87.94,90.85,91.83,92.3,94.19,91.26,99.56,88.55,72.05,71.59,76.36,82.5,70.74,64.71,77.47,67.75,66.33,72.79,73.51,70.53,72.6,75.18,75.07,71.58,71.11,72.14,73.85,72.1,69.93,70.77,73.09,73.99,79.03,77.27,74.16,76.8,63.36,71.26,73.06,76.66,76.98,74.19,81.94,79.43,79.43,81.77,75.38,86.35,74.09,76.35,72.43,83.06,77.32,77.59,73.98,71.75,75.29,79.68,79.75,75.18,78.53,86.29,79.92,72.47,69.43,75.22,81.78,86.71,81.12,73.9,71.91,71.94,79.18,77.18,80.68,73.03,71.15,70.91,73.56,75.41,84.69,72.3,85.04,84.96,82.89,80.4,79.92,76.66,73.71,83.9,74.48,78.04,79.88,72.83,75.56,76.18,72.02,73.19,82.76,72.02,72.42,77.38,74.21,72.5,80.38,75.65,71.33,76.59,79.97,73.21,84.57,85.36,77.23,78.34,82.54,75.14,80.91,67.03
80.61,80.61,82.95,82.95,79.75,79.75,86.23,86.23,85.46,85.46,85.26,84.61,80.42,80.42,92.58,92.18,93.09,92.41,93.43,94.55,94.84,96.25,93.73,98.66,91.95,80.42,79.91,83.42,87.22,78.52,74.63,84.3,76.62,76.3,80.08,80.78,78.85,80.8,83,82.33,80.04,80.03,80.87,82.1,80.63,79.32,80.02,80.82,82.02,85.18,84.24,81.98,83.6,74.12,80.28,80.8,82.46,82.94,80.91,86.38,84.72,84.72,86.85,81.84,90.61,81.06,83.16,80.65,87.77,83.28,82.91,80.93,80.7,82.34,84.64,83.94,82.12,83.92,89.95,85.03,80.12,78.07,81.05,85.72,90.43,86.51,80.25,78.85,79.14,83.86,82.95,86.02,79.7,79.66,79.63,80.23,81.78,89.23,79.46,88.99,89.73,87.27,86.79,86.81,82.9,80.49,88.1,80.6,83.41,85.17,79.69,81.5,82.05,78.61,79.22,87.68,78.61,78.65,82.37,80.93,79.01,85.22,81.44,78.11,82.46,84.57,79.21,87.94,88.62,82.78,83.42,87.38,81.2,84.38,77.99