File: 5_RW_thesis/Degradation_FTIR/Proteomics.csv
Wavenumber (cm^-1)
3999.43
3988.25
3977.07
3965.89
3954.71
3943.52
3932.34
3921.16
3909.98
3898.8
3887.61
3876.43
3865.25
3854.07
3842.89
3831.7
3820.52
3809.34
3798.16
3786.98
3775.79
3764.61
3753.43
3742.25
3731.07
3719.88
3708.7
3697.52
3686.34
3675.16
3663.97
3652.79
3641.61
3630.43
3619.25
3608.06
3596.88
3585.7
3574.52
3563.33
3552.15
3540.97
3529.79
3518.61
3507.42
3496.24
3485.06
3473.88
3462.7
3451.51
3440.33
3429.15
3417.97
3406.79
3395.6
3384.42
3373.24
3362.06
3350.88
3339.69
3328.51
3317.33
3306.15
3294.97
3283.78
3272.6
3261.42
3250.24
3239.06
3227.87
3216.69
3205.51
3194.33
3183.15
3171.96
3160.78
3149.6
3138.42
3127.24
3116.05
3104.87
3093.69
3082.51
3071.33
3060.14
3048.96
3037.78
3026.6
3015.42
3004.23
2993.05
2981.87
2970.69
2959.51
2948.32
2937.14
2925.96
2914.78
2903.6
2892.41
2881.23
2870.05
2858.87
2847.69
2836.5
2825.32
2814.14
2802.96
2791.78
2780.59
2769.41
2758.23
2747.05
2735.87
2724.68
2713.5
2702.32
2691.14
2679.96
2668.77
2657.59
2646.41
2635.23
2624.05
2612.86
2601.68
2590.5
2579.32
2568.14
2556.95
2545.77
2534.59
2523.41
2512.23
2501.04
2489.86
2478.68
2467.5
2456.32
2445.13
2433.95
2422.77
2411.59
2400.41
2389.22
2378.04
2366.86
2355.68
2344.5
2333.31
2322.13
2310.95
2299.77
2288.59
2277.4
2266.22
2255.04
2243.86
2232.68
2221.49
2210.31
2199.13
2187.95
2176.77
2165.58
2154.4
2143.22
2132.04
2120.86
2109.67
2098.49
2087.31
2076.13
2064.95
2053.76
2042.58
2031.4
2020.22
2009.04
1997.85
1986.67
1975.49
1964.31
1953.13
1941.94
1930.761
1919.58
1908.4
1897.21
1886.03
1874.85
1863.67
1852.49
1841.3
1830.12
1818.94
1807.76
1796.58
1785.39
1774.21
1763.03
1751.85
1740.67
1729.48
1718.3
1707.12
1695.94
1684.76
1673.57
1662.39
1651.21
1640.03
1628.85
1617.66
1606.48
1595.3
1584.12
1572.94
1561.75
1550.57
1539.39
1528.21
1517.03
1505.84
1494.66
1483.48
1472.3
1461.12
1449.93
1438.75
1427.57
1416.39
1405.21
1394.02
1382.84
1371.66
1360.48
1349.3
1338.11
1326.93
1315.75
1304.57
1293.39
1282.2
1271.02
1259.84
1248.66
1237.48
1226.29
1215.11
1203.93
1192.75
1181.57
1170.38
1159.2
1148.02
1136.84
1125.66
1114.47
1103.292
1092.11
1080.93
1069.75
1058.56
1047.38
1036.2
1025.02
1013.84
1002.65
991.472
980.29
969.108
957.926
946.744
935.562
924.38
913.198
902.016
890.834
879.652
868.47
857.288
846.106
834.924
823.742
812.56
801.378
790.196
779.014
767.832
756.65
745.468
734.286
723.104
711.922
700.74
689.557
678.375
667.193
656.011
650.42