File: 4_community_and_isolates/a_growth_and_FTIR/corrected_spectra_r_WPET.txt
.wavelength	spc
650	2.09986
1053	2.93364
1456	0.640419
1859	-0.00438209
2262	0.25595
2665	0.529051
3068	0.713078
3471	0.752261
3874	0.873277
926	1.27317
1329	0.39883
1732	2.18596
2135	0.115082
2538	0.552662
2941	0.941733
3344	1.0094
3747	1.25453
799	1.16536
1202	2.30972
1605	0.52089
2008	0.00448215
2411	0.437476
2814	0.725
3217	0.880551
3620	1.12069
672	1.7647
1075	3.59117
1478	0.314251
1881	-0.0251983
2284	0.365182
2687	0.634463
3090	0.889594
3493	1.03083
3896	1.2704
948	1.66832
1351	0.436884
1754	0.111937
2157	0.0672616
2560	0.522542
2963	1.04736
3366	0.914879
3769	1.10987
821	1.80259
1224	4.3192
1627	0.851538
2030	-0.0132617
2433	0.388274
2836	0.596049
3239	0.638283
3642	0.774284
694	2.50818
1097	3.78791
1500	0.416846
1903	0.0133047
2306	0.427857
2709	0.687106
3112	0.90797
3515	1.05865
3918	1.32997
970	1.93602
1373	0.48013
1776	0.0603267
2179	0.0541007
2582	0.607971
2985	1.04667
3388	1.07163
3791	1.35737
843	1.81041
1246	4.03062
1649	0.987038
2052	0.0417759
2455	0.444517
2858	0.834021
3261	0.923315
3664	1.18421
716	4.12107
1119	3.24352
1522	0.244282
1925	0.0497597
2328	0.411935
2731	0.683898
3134	0.876874
3537	1.07091
3940	1.28952
992	2.24433
1395	0.667828
1798	-0.00314096
2201	0.181895
2604	0.543022
3007	0.802487
3410	0.882423
3813	0.976452
865	2.2358
1268	3.16507
1671	1.77159
2074	0.165859
2477	0.453583
2880	0.808434
3283	0.850541
3686	1.01153
738	0.919426
1141	1.36788
1544	0.285847
1947	0.0618844
2350	0.402712
2753	0.67703
3156	0.832708
3559	1.00759
3962	1.19583
1014	3.55986
1417	0.625658
1820	0.0138382
2223	0.246846
2626	0.571721
3029	0.753739
3432	0.937353
3835	1.06463
887	1.06337
1290	1.39718
1693	2.62831
2096	0.193516
2499	0.5398
2902	0.978861
3305	1.03883
3708	1.28838
760	0.394903
1163	0.822366
1566	0.417934
1969	-0.020417
2372	0.397814
2775	0.663038
3178	0.795816
3581	0.992633
3984	1.16726
1036	2.23689
1439	0.414691
1842	-0.00750827
2245	0.290093
2648	0.616412
3051	0.852499
3454	0.983068
3857	1.24176
909	0.991391
1312	0.468726
1715	4.17315
2118	0.206065
2521	0.529625
2924	0.917809
3327	1.03253
3730	1.26145
782	0.764469
1185	1.08527
1588	0.650117
1991	0.0142835
2394	0.484135
2797	0.843532
3200	1.1752
3603	1.23446
655	1.65262
1058	2.54307
1461	0.428777
1864	0.00455712
2267	0.332346
2670	0.673563
3073	0.931552
3476	1.02642
3879	1.33768
931	1.33378
1334	1.01582
1737	1.31423
2140	0.114026
2543	0.566609
2946	0.796745
3349	1.00178
3752	1.35972
804	1.04636
1207	2.6233
1610	0.597702
2013	0.0135553
2416	0.449901
2819	0.753044
3222	0.928816
3625	1.17058
677	2.36365
1080	4.19916
1483	0.225112
1886	-0.00958097
2289	0.37661
2692	0.575046
3095	0.772467
3498	0.87467
3901	1.03913
953	1.65725
1356	-0.0363961
1759	0.146298
2162	0.130094
2565	0.710876
2968	0.770956
3371	0.869317
3774	1.55625
826	1.56963
1229	4.34745
1632	0.747426
2035	0.0267451
2438	0.424329
2841	0.678717
3244	0.792518
3647	1.00647
699	3.195
1102	4.06043
1505	0.615667
1908	0.00563137
2311	0.386512
2714	0.605939
3117	0.796618
3520	0.952987
3923	1.16833
975	2.35949
1378	0.542096
1781	-0.0063165
2184	0.135618
2587	0.49731
2990	0.843218
3393	0.826791
3796	1.00018
848	1.8452
1251	3.82229
1654	1.16766
2057	0.0861774
2460	0.470944
2863	0.780624
3266	0.921344
3669	1.20784
721	4.43471
1124	3.01921
1527	0.200739
1930	0.0381246
2333	0.427925
2736	0.690734
3139	0.869774
3542	1.08691
3945	1.29206
997	2.17601
1400	0.890856
1803	0.00656103
2206	0.205501
2609	0.606384
3012	0.883468
3415	1.00537
3818	1.20992
870	2.41115
1273	2.75644
1676	1.95141
2079	0.161915
2482	0.470785
2885	0.84477
3288	0.912858
3691	1.18671
743	0.112891
1146	1.00659
1549	0.14392
1952	0.0464507
2355	0.430724
2758	0.684152
3161	0.859434
3564	1.11894
3967	1.31349
1019	3.40163
1422	0.119741
1825	0.049392
2228	0.234599
2631	0.601617
3034	0.813653
3437	1.01871
3840	1.27675
892	1.36327
1295	1.23915
1698	3.2797
2101	0.231638
2504	0.500279
2907	0.863074
3310	0.859076
3713	1.01687
765	0.712519
1168	1.11101
1571	0.543728
1974	-0.0398093
2377	0.413817
2780	0.634744
3183	0.748325
3586	0.908119
3989	1.03939
1041	2.30294
1444	0.359602
1847	0.012564
2250	0.281796
2653	0.657123
3056	0.901088
3459	1.03072
3862	1.32096
4000	1.36598