File: 4_community_and_isolates/a_growth_and_FTIR/corrected_spectra_r_LC.txt
.wavelength	spc
650	1.10016
1053	2.55823
1456	0.881746
1859	0.00210218
2262	0.169484
2665	0.543777
3068	0.886001
3471	1.09371
3874	1.11284
926	1.21969
1329	0.314604
1732	2.43516
2135	0.0839535
2538	0.406605
2941	1.59959
3344	1.02172
3747	1.03038
799	1.13138
1202	2.09603
1605	0.498379
2008	-0.0420158
2411	0.358534
2814	0.773282
3217	0.932947
3620	1.0492
672	1.61302
1075	4.19256
1478	0.213124
1881	0.0207975
2284	0.249975
2687	0.559956
3090	0.838203
3493	0.990921
3896	1.16314
948	1.9684
1351	0.291225
1754	0.391457
2157	-0.0153679
2560	0.401337
2963	1.25885
3366	0.911894
3769	1.03025
821	1.1666
1224	4.07774
1627	0.575175
2030	-0.0504603
2433	0.31378
2836	0.837964
3239	0.864925
3642	1.02104
694	1.83855
1097	4.04915
1500	0.453613
1903	0.0308222
2306	0.27027
2709	0.588999
3112	0.908836
3515	1.12025
3918	1.21483
970	1.90019
1373	0.858239
1776	0.161353
2179	0.0251497
2582	0.476542
2985	0.97004
3388	1.08528
3791	1.11435
843	1.26314
1246	4.00132
1649	1.01967
2052	-0.0550477
2455	0.405849
2858	1.43969
3261	1.12869
3664	1.11393
716	4.48127
1119	3.22608
1522	0.188449
1925	0.0228746
2328	0.301483
2731	0.613805
3134	0.894499
3537	1.0322
3940	1.12079
992	2.02026
1395	0.699825
1798	0.0181608
2201	0.0815672
2604	0.491572
3007	0.832865
3410	1.09364
3813	1.03638
865	1.78378
1268	3.02573
1671	1.47554
2074	0.112207
2477	0.407915
2880	1.15491
3283	1.15557
3686	1.08876
738	1.55372
1141	1.52879
1544	0.244718
1947	0.0440313
2350	0.283681
2753	0.596211
3156	0.845879
3559	0.988533
3962	1.06277
1014	3.786
1417	0.460688
1820	0.0461928
2223	0.145299
2626	0.518473
3029	0.817012
3432	1.14443
3835	1.06709
887	1.30393
1290	1.7454
1693	2.20479
2096	0.0975651
2499	0.417787
2902	1.23682
3305	1.14204
3708	1.0392
760	0.0871803
1163	0.647596
1566	0.588876
1969	-0.026248
2372	0.396419
2775	0.773718
3178	1.16084
3581	1.12384
3984	1.25732
1036	2.19927
1439	0.590955
1842	0.0302313
2245	0.19477
2648	0.630214
3051	1.04552
3454	1.27864
3857	1.23461
909	0.938026
1312	0.529002
1715	3.15504
2118	0.128214
2521	0.454914
2924	1.63029
3327	1.29811
3730	1.08435
782	0.485869
1185	1.27099
1588	0.491854
1991	-0.0327182
2394	0.254069
2797	0.518688
3200	0.657694
3603	0.774586
655	1.20198
1058	3.09407
1461	0.856744
1864	0.0157548
2267	0.19522
2670	0.449682
3073	0.707223
3476	0.813608
3879	0.853407
931	1.16092
1334	0.375339
1737	1.84805
2140	0.0547068
2543	0.314003
2946	1.36998
3349	0.852557
3752	0.860963
804	0.944246
1207	2.57276
1610	0.582835
2013	-0.101488
2416	0.266511
2819	0.569459
3222	0.660401
3625	0.81191
677	1.61548
1080	6.27704
1483	0.222813
1886	0.00562543
2289	0.220139
2692	0.462025
3095	0.704022
3498	0.781171
3901	0.900853
953	2.07919
1356	0.266479
1759	0.284703
2162	0.0768847
2565	0.318157
2968	1.10639
3371	0.847699
3774	0.868217
826	1.03353
1229	6.18932
1632	0.671829
2035	-0.0274499
2438	0.262781
2841	0.578496
3244	0.676586
3647	0.852247
699	2.61117
1102	5.56112
1505	0.606082
1908	0.0167513
2311	0.229921
2714	0.485112
3117	0.716081
3520	0.762824
3923	0.915042
975	1.89948
1378	0.738022
1781	0.116319
2184	-0.00560498
2587	0.328925
2990	0.765346
3393	0.853348
3796	0.851023
848	1.47788
1251	3.58601
1654	1.00622
2057	0.0369772
2460	0.398287
2863	1.21488
3266	1.12556
3669	1.11937
721	5.67213
1124	2.57877
1527	0.252284
1930	0.0308907
2333	0.286551
2736	0.622006
3139	0.92404
3542	1.10987
3945	1.1379
997	1.90201
1400	1.07735
1803	0.041424
2206	0.084302
2609	0.462175
3012	0.872376
3415	1.37534
3818	1.04865
870	2.21279
1273	2.93146
1676	1.65784
2079	0.083031
2482	0.389729
2885	1.30559
3288	1.11799
3691	1.06727
743	0.203289
1146	0.87218
1549	0.381657
1952	0.0742862
2355	0.359028
2758	0.734469
3161	1.01197
3564	1.14525
3967	1.22799
1019	3.01629
1422	0.31973
1825	0.147597
2228	0.132217
2631	0.583122
3034	0.863657
3437	1.16142
3840	1.21568
892	1.42593
1295	1.85902
1698	3.03354
2101	0.0932831
2504	0.378595
2907	1.32345
3310	0.978644
3713	0.999309
765	0.215169
1168	1.06182
1571	0.566167
1974	-0.0251182
2377	0.329489
2780	0.681187
3183	0.970551
3586	1.02509
3989	1.13756
1041	2.37256
1444	0.832886
1847	0.117546
2250	0.18497
2653	0.609939
3056	0.938278
3459	1.15381
3862	1.15365
4000	1.1791