File: 4_community_and_isolates/a_growth_and_FTIR/corrected_spectra_r_PET.txt
.wavelength	spc
650	1.79677
1053	2.69718
1456	0.554009
1859	-0.0261486
2262	0.299504
2665	0.586836
3068	0.802947
3471	0.902783
3874	1.06353
926	1.6052
1329	0.606172
1732	2.50302
2135	0.105589
2538	0.4532
2941	0.794549
3344	0.769893
3747	0.911791
799	1.01391
1202	2.22008
1605	0.483563
2008	0.0337449
2411	0.447133
2814	0.771882
3217	0.950308
3620	1.22246
672	2.56291
1075	4.19643
1478	0.433628
1881	0.00445979
2284	0.35709
2687	0.528232
3090	0.680329
3493	0.741181
3896	0.855174
948	1.98766
1351	0.467022
1754	0.0705339
2157	-0.0214499
2560	0.478994
2963	0.956031
3366	0.769802
3769	0.921688
821	1.24421
1224	3.80347
1627	0.667602
2030	-0.00849365
2433	0.443601
2836	0.749857
3239	0.887983
3642	1.09703
694	3.22905
1097	4.56571
1500	0.56592
1903	0.0302421
2306	0.349963
2709	0.533571
3112	0.665088
3515	0.745764
3918	0.885714
970	2.15405
1373	0.469311
1776	-0.00287604
2179	0.12437
2582	0.568366
2985	0.985368
3388	1.02295
3791	1.25599
843	1.93754
1246	4.22524
1649	0.972471
2052	0.0758919
2455	0.458473
2858	0.780381
3261	0.877483
3664	1.0779
716	5.01645
1119	3.83822
1522	0.306004
1925	0.054795
2328	0.369146
2731	0.541694
3134	0.628881
3537	0.74783
3940	0.860345
992	2.17205
1395	0.603577
1798	0.004084
2201	0.165532
2604	0.54263
3007	0.826482
3410	0.918397
3813	1.08457
865	2.23991
1268	3.08972
1671	1.76267
2074	0.181083
2477	0.447932
2880	0.837953
3283	0.849774
3686	0.99725
738	0.959658
1141	1.34231
1544	0.256786
1947	0.106728
2350	0.41566
2753	0.6623
3156	0.819785
3559	0.984555
3962	1.16535
1014	3.42208
1417	0.454685
1820	0.0114735
2223	0.258986
2626	0.608278
3029	0.811237
3432	1.0601
3835	1.16144
887	1.63648
1290	1.74488
1693	2.74548
2096	0.164411
2499	0.442788
2902	0.748792
3305	0.742413
3708	0.865483
760	0.827076
1163	1.1388
1566	0.522888
1969	0.000708698
2372	0.333074
2775	0.484244
3178	0.555829
3581	0.633313
3984	0.731256
1036	2.28842
1439	0.4214
1842	-0.00618549
2245	0.288849
2648	0.615618
3051	0.865054
3454	0.968609
3857	1.2238
909	1.01281
1312	0.508283
1715	4.1698
2118	0.18649
2521	0.507903
2924	0.890189
3327	1.01801
3730	1.23258
782	0.980851
1185	1.34048
1588	0.379203
1991	0.00926067
2394	0.449959
2797	0.733758
3200	0.873773
3603	1.1165
655	1.2959
1058	2.32472
1461	0.394671
1864	-0.0189311
2267	0.349545
2670	0.701478
3073	1.00661
3476	1.1757
3879	1.46191
931	1.22222
1334	1.11278
1737	1.69278
2140	0.13926
2543	0.551411
2946	1.01033
3349	1.03905
3752	1.28723
804	1.26703
1207	2.78581
1610	0.671441
2013	-0.0174332
2416	0.420228
2819	0.682788
3222	0.810907
3625	0.989654
677	2.22666
1080	3.94463
1483	0.199836
1886	-0.026722
2289	0.374739
2692	0.597376
3095	0.826859
3498	0.9625
3901	1.1489
953	1.87682
1356	0.312871
1759	0.0808147
2162	0.129732
2565	0.494052
2968	0.962408
3371	0.841507
3774	1.015
826	1.77828
1229	4.44324
1632	0.913832
2035	0.0148934
2438	0.375649
2841	0.62578
3244	0.677166
3647	0.821915
699	2.89154
1102	3.92998
1505	0.626316
1908	-0.0182615
2311	0.363312
2714	0.634028
3117	0.876426
3520	1.03152
3923	1.22843
975	1.94412
1378	0.474042
1781	0.0274576
2184	0.13429
2587	0.589073
2990	1.01269
3393	1.04241
3796	1.24274
848	2.06782
1251	4.11657
1654	1.19804
2057	0.091699
2460	0.444363
2863	0.760376
3266	0.840446
3669	1.00741
721	4.60512
1124	3.17015
1527	0.217688
1930	0.0482478
2333	0.392451
2736	0.649161
3139	0.818618
3542	0.990989
3945	1.18066
997	2.18278
1400	0.993722
1803	0.0140205
2206	0.181177
2609	0.591586
3012	0.876298
3415	0.978523
3818	1.16614
870	2.48239
1273	2.71861
1676	1.95712
2079	0.16111
2482	0.463433
2885	0.83824
3288	0.885175
3691	1.10338
743	0.193467
1146	0.982167
1549	0.26753
1952	0.0775422
2355	0.402679
2758	0.660831
3161	0.801175
3564	1.00491
3967	1.18288
1019	3.3771
1422	0.103027
1825	0.0244804
2228	0.217161
2631	0.602237
3034	0.822832
3437	1.04464
3840	1.27449
892	1.2606
1295	1.20803
1698	3.29303
2101	0.2059
2504	0.496151
2907	0.920375
3310	0.936106
3713	1.14972
765	0.681747
1168	1.11952
1571	0.510318
1974	-0.00788064
2377	0.388885
2780	0.631463
3183	0.772647
3586	0.940573
3989	1.07763
1041	2.50315
1444	0.495428
1847	-0.0168402
2250	0.289056
2653	0.592502
3056	0.84909
3459	0.956292
3862	1.12898
4000	1.19693